Wavelength(nm),k
189.97854,1.135
194.99842,1.17
200,1.215
206.63333,1.306
210.13559,1.334
213.75862,1.364
217.50877,1.388
221.39285,1.418
225.41818,1.442
229.59259,1.478
233.92452,1.51
238.42307,1.55
243.09803,1.59
247.96,1.636
253.0204,1.698
258.29166,1.748
263.78723,1.784
269.52173,1.822
275.51111,1.852
281.77272,1.882
288.32558,1.9
295.19047,1.918
302.39024,1.92
309.94999,1.916
317.89743,1.904
326.26315,1.878
335.08107,1.86
344.38888,1.846
354.22856,1.848
364.64705,1.862
375.69696,1.906
387.43749,1.936
399.93548,1.956
413.26666,1.958
427.51723,1.94
442.78571,1.904
459.18518,1.846
476.84614,1.796
495.91999,1.84
516.58332,2.12
539.04347,2.54
563.54544,2.88
652.5263,3.15
688.77776,3.8
729.2941,4.35
774.87499,4.86
826.53332,5.39
885.57141,5.88
953.69229,6.47
1033.16665,7.07
1127.09089,7.93
1239.79998,8.77
1265.10202,8.09
1291.45831,8.25
1318.93615,8.42
1347.60867,8.59
1377.55553,8.77
1408.86361,8.96
1441.62788,9.15
1475.95235,9.36
1511.95119,9.58
1549.74997,9.81
1589.48715,10.1
1631.31576,10.3
1675.40537,10.6
1721.94441,10.9
1771.14282,11.2
1823.23526,11.5
1878.48481,11.9
1937.18746,12.2
1999.67738,12.6
2066.33329,13
2108.54545,13.25677
2149.81818,13.50552
2191.09091,13.7541
2232.36364,14.00263
2273.63636,14.2513
2314.90909,14.50012
2356.18182,14.74927
2397.45455,14.99887
2438.72727,15.24911
2480,15.5
