"Wavelength","Value"
206.63,1.4578
210.13,1.4574
213.75,1.457
217.5,1.4566
221.39,1.4562
225.41,1.4559
229.59,1.4555
233.92,1.4552
238.42,1.4549
243.09,1.4545
247.96,1.4542
253.02,1.4539
258.29,1.4537
263.78,1.4534
269.52,1.4531
275.51,1.4529
281.77,1.4526
288.32,1.4524
295.19,1.4521
302.39,1.4519
309.94,1.4517
317.89,1.4515
326.26,1.4513
335.08,1.4511
344.38,1.4509
354.22,1.4507
364.64,1.4505
375.69,1.4504
387.43,1.4502
399.93,1.4501
413.26,1.4499
427.51,1.4498
442.78,1.4496
459.18,1.4495
476.84,1.4494
495.92,1.4492
516.58,1.4491
539.04,1.449
563.54,1.4489
590.38,1.4488
619.89,1.4487
652.52,1.4486
688.77,1.4485
729.29,1.4484
774.87,1.4483
826.53,1.4482
885.57,1.4481
953.69,1.4481
1033.16,1.448
1127.09,1.4479
1239.79,1.4478
