Wavelength(nm), k
 499.07, 0.6417
 503.87, 0.6700
 508.66, 0.6981
 513.45, 0.7260
 518.22, 0.7535
 522.98, 0.7806
 527.74, 0.8073
 532.49, 0.8333
 537.23, 0.8587
 541.96, 0.8834
 546.68, 0.9073
 551.4, 0.9305
 556.1, 0.9528
 560.8, 0.9743
 565.49, 0.9949
 570.17, 1.0146
 574.84, 1.0336
 579.51, 1.0517
 584.16, 1.0689
 588.81, 1.0855
 593.45, 1.1013
 598.08, 1.1164
 602.7, 1.1309
 607.31, 1.1448
 611.92, 1.1583
 616.52, 1.1713
 621.1, 1.1839
 625.68, 1.1960
 630.26, 1.2078
 634.82, 1.2188
 639.37, 1.2285
 643.92, 1.2353
 648.46, 1.2222
 652.99, 1.1762
 657.51, 1.1345
 662.02, 1.1180
 666.52, 1.1325
 671.02, 1.1759
 675.5, 1.2401
 679.98, 1.3080
 684.45, 1.3498
 688.92, 1.3391
 693.37, 1.2983
 697.81, 1.2506
 702.25, 1.2065
 706.68, 1.1717
 711.1, 1.1464
 715.51, 1.1282
 719.91, 1.1144
 724.31, 1.1024
 728.69, 1.0902
 733.07, 1.0763
 737.44, 1.0596
 741.8, 1.0393
 746.15, 1.0145
 750.5, 0.9831
 754.83, 0.9178
 759.16, 0.8020
 763.48, 0.6752
 767.79, 0.5606
 772.09, 0.4658
 776.38, 0.3902
 780.67, 0.3305
 784.94, 0.2836
 789.21, 0.2461
 793.47, 0.2160
 797.72, 0.1914
 801.96, 0.1712
 806.2, 0.1543
 810.42, 0.1401
 814.64, 0.1280
 818.85, 0.1176
 823.05, 0.1087
 827.24, 0.1008
 831.43, 0.0940
 835.6, 0.0879
 839.77, 0.0825
 843.93, 0.0777
 848.08, 0.0733
 852.22, 0.0694
 856.35, 0.0659
 860.48, 0.0627
 864.59, 0.0597
