Wavelength(nm), R
275.86,	0.52515
280.54,	0.50844
285.39,	0.48604
290.4,  0.46753
295.59,	0.45233
300.97,	0.43942
306.55,	0.43116
312.34,	0.42623
318.36,	0.42172
324.61,	0.42128
331.11,	0.42065
337.87,	0.42229
344.92,	0.42392
352.27,	0.42836
359.94,	0.43437
367.95,	0.44281
376.33,	0.45287
385.09,	0.46822
394.28,	0.48482
403.91,	0.48182
414.02,	0.48117
424.66,	0.49718
435.85,	0.48094
447.65,	0.45612
460.11,	0.43632
473.28,	0.42077
487.23,	0.40752
502.02,	0.39602
517.75,	0.38596
534.48,	0.37713
552.34,	0.36958
571.43,	0.36308
591.89,	0.35709
600.48, 0.35481
604.88, 0.35375
609.34, 0.35269
613.86, 0.35169
618.45, 0.35073
623.12, 0.34981
627.85, 0.34882
632.65, 0.34791
637.53, 0.34704
642.49, 0.34622
647.52, 0.34543
652.63, 0.34463
657.82, 0.34381
663.10, 0.34304
668.46, 0.34237
673.91, 0.34167
679.45, 0.34106
685.08, 0.34043
690.81, 0.33988
696.63, 0.33927
702.55, 0.33867
708.57, 0.33792
714.70, 0.33696
720.93, 0.33600
727.27, 0.33506
733.73, 0.33427
740.30, 0.33445
746.99, 0.33267
753.80, 0.33105
760.74, 0.32979
767.80, 0.32889
775.00, 0.32832
782.33, 0.32807
789.81, 0.32790
797.43, 0.32794
805.19, 0.32808
813.11, 0.32720
821.19, 0.32608
829.43, 0.32587
837.84, 0.32561
846.42, 0.32564
855.17, 0.32607
864.11, 0.32597
873.24, 0.32520
882.56, 0.32386
892.09, 0.32208
901.82, 0.32050
911.76, 0.31815
921.93, 0.31649
932.33, 0.31486
942.97, 0.31390
953.85, 0.31332
964.98, 0.31275
976.38, 0.31219
988.05, 0.31165
1000.0, 0.31113
1033.0, 0.30776
1078.0, 0.30560
1127.0, 0.30363