Wavelength(nm),k
250.00,0
275.00,0
300.00,0
325.00,0
350.00,0
375.00,0
400.00,0
425.00,0
450.00,0
475.00,0
500.00,0
525.00,0
550.00,0
575.00,0
600.00,0
625.00,0
650.00,0
675.00,0
700.00,0
725.00,0
750.00,0
775.00,0
800.00,0
825.00,0
850.00,0
875.00,0
900.00,0
