Wavelength(nm),k
206.63,2.113
210.14,2.183
213.76,2.28
217.51,2.383
221.39,2.484
225.42,2.562
229.59,2.652
233.92,2.802
238.42,3.016
243.10,3.291
247.96,3.495
253.02,3.514
258.29,3.517
263.79,3.223
269.52,2.637
275.51,2.186
281.77,1.948
288.33,1.826
295.19,1.762
302.39,1.735
309.95,1.73
317.90,1.744
326.26,1.773
335.08,1.816
344.39,1.872
354.23,1.948
364.65,2.06
375.70,2.209
387.44,2.143
399.94,1.735
413.27,1.247
427.52,0.964
442.79,0.786
459.19,0.667
476.85,0.579
495.92,0.511
516.58,0.457
539.04,0.416
563.55,0.38
590.38,0.347
619.90,0.317
652.53,0.293
688.78,0.27
729.29,0.242
774.87,0.218
826.53,0.203
885.57,0.109
953.69,0.00028
1033.17,0
1127.09,0
1239.80,0
1377.56,0
1549.75,0
1771.14,0
2066.33,0
