Wavelength(nm),k
206.63,1.91
208.04,2.141
209.47,2.191
210.92,2.192
212.39,2.204
213.88,2.211
215.39,2.222
216.92,2.232
218.47,2.243
220.05,2.259
221.65,2.278
223.27,2.3
224.92,2.325
226.59,2.35
228.29,2.375
230.01,2.4
231.76,2.42
233.53,2.433
235.33,2.442
237.16,2.446
239.02,2.442
240.91,2.436
242.83,2.431
244.78,2.429
246.76,2.434
248.77,2.447
250.81,2.468
252.89,2.493
255.01,2.524
257.16,2.558
259.35,2.593
261.57,2.63
263.83,2.67
266.14,2.712
268.48,2.756
270.86,2.802
273.29,2.849
275.76,2.899
278.28,2.954
280.84,3.012
283.45,3.076
286.11,3.146
288.82,3.224
291.58,3.31
294.39,3.405
297.26,3.507
300.19,3.605
303.17,3.682
306.22,3.719
309.32,3.703
312.49,3.641
315.73,3.549
319.03,3.442
322.40,3.329
325.84,3.217
329.36,3.105
332.96,2.995
336.63,2.89
340.39,2.794
344.23,2.708
348.16,2.628
352.18,2.553
356.30,2.484
360.51,2.423
364.82,2.367
369.24,2.307
373.76,2.244
378.40,2.184
383.15,2.132
388.03,2.088
393.03,2.049
398.16,2.022
403.43,2.005
408.83,1.996
414.39,1.994
420.10,1.996
425.96,2.002
432.00,2.012
438.21,2.025
444.59,2.041
451.17,2.058
457.94,2.079
464.92,2.102
472.12,2.128
479.55,2.155
487.21,2.184
495.11,2.218
503.29,2.251
511.73,2.282
520.46,2.276
529.50,2.187
538.85,2.062
548.54,1.957
558.59,1.879
569.01,1.825
579.83,1.789
591.07,1.769
602.75,1.763
614.90,1.768
627.55,1.787
640.74,1.824
654.49,1.879
668.84,1.78
683.84,1.484
699.52,1.233
715.94,1.052
733.15,0.925
751.21,0.828
770.18,0.762
790.13,0.711
811.15,0.665
833.31,0.626
856.72,0.537
881.48,0.42
907.71,0.358
935.55,0.328
965.16,0.315
996.70,0.314
1030.37,0.319
1066.40,0.326
1105.04,0.329
1146.58,0.322
1191.37,0.301
1239.80,0.26
