Wavelength(nm),k
206.63,1.63
210.14,1.67
213.76,1.73
217.51,1.78
221.39,1.83
225.42,1.88
229.59,1.94
233.92,1.99
238.42,2.04
243.10,2.07
247.96,2.1
253.02,2.11
258.29,2.11
263.79,2.1
269.52,2.09
275.51,2.07
281.77,2.06
288.33,2.03
295.19,2.01
302.39,2
309.95,1.98
317.90,1.98
326.26,1.99
335.08,2.02
344.39,2.07
354.23,2.11
364.65,2.17
375.70,2.23
387.44,2.3
399.94,2.36
413.27,2.44
427.52,2.52
442.79,2.61
459.19,2.71
476.85,2.81
495.92,2.93
516.58,3.06
539.04,3.19
563.55,3.33
590.38,3.48
619.90,3.65
652.53,3.82
688.78,4.01
729.29,4.18
774.87,4.31
826.53,4.47
885.57,4.63
953.69,4.85
1033.17,5.1
1127.09,5.38
1239.80,5.74
