Wavelength(nm), k
 593.14, 0.0023
 600.89, 0.0023
 610.54, 0.0023
 620.16, 0.0024
 630.69, 0.0024
 640.23, 0.0024
 650.68, 0.0025
 660.14, 0.0025
 670.5, 0.0025
 680.82, 0.0026
 690.16, 0.0026
 700.39, 0.0026
 710.58, 0.0027
 720.72, 0.0027
 730.82, 0.0027
 740.87, 0.0027
 750.88, 0.0028
 760.85, 0.0028
 770.76, 0.0028
 780.64, 0.0029
 790.47, 0.0029
 800.25, 0.0029
 810.88, 0.0030
 820.57, 0.0030
 830.21, 0.0030
 840.68, 0.0031
 850.24, 0.0031
 860.61, 0.0031
 870.07, 0.0031
 880.33, 0.0032
 890.55, 0.0032
 900.71, 0.0032
 910.82, 0.0032
 920.03, 0.0033
 930.04, 0.0033
 940.82, 0.0033
 950.71, 0.0034
 960.55, 0.0034
 970.34, 0.0034
 980.08, 0.0034
 990.56, 0.0035
 1000.19, 0.0035
 1010.55, 0.0035
 1020.06, 0.0035
 1030.31, 0.0036
 1040.49, 0.0036