Wavelength(nm),k
250.00,0.205
270.00,0.046
290.00,0.01
310.00,0.009
330.00,0.006
350.00,0.002
370.00,0.001
390.00,0
410.00,0
430.00,0
450.00,0
470.00,0
490.00,0
510.00,0
530.00,0
550.00,0
570.00,0
590.00,0
610.00,0
630.00,0
650.00,0
670.00,0
690.00,0
710.00,0
730.00,0
750.00,0
770.00,0
790.00,0
810.00,0
830.00,0
850.00,0
870.00,0
890.00,0
910.00,0
930.00,0
950.00,0
970.00,0
990.00,0
1010.00,0
1030.00,0
1050.00,0
1070.00,0
1090.00,0
1110.00,0
1130.00,0
1150.00,0
1170.00,0
1190.00,0
1210.00,0
1230.00,0
1250.00,0
