Wavelength(nm),k
206.63,1.21
210.14,1.22
213.76,1.22
217.51,1.21
221.39,1.21
225.42,1.19
229.59,1.15
233.92,1.21
238.42,1.2
243.10,1.2
247.96,1.21
253.02,1.22
258.29,1.23
263.79,1.25
269.52,1.28
275.51,1.31
281.77,1.33
288.33,1.37
295.19,1.44
302.39,1.53
309.95,1.61
317.90,1.73
326.26,1.83
335.08,1.9
344.39,1.96
354.23,2.01
364.65,2.06
375.70,2.09
387.44,2.12
399.94,2.15
413.27,2.17
427.52,2.21
442.79,2.25
459.19,2.29
476.85,2.34
495.92,2.39
516.58,2.47
539.04,2.56
563.55,2.67
590.38,2.77
619.90,2.88
652.53,2.99
688.78,3.11
729.29,3.23
774.87,3.3
826.53,3.32
885.57,3.28
953.69,3.25
1033.17,3.3
1127.09,3.4
1239.80,3.52
