Wavelength(nm),k
250.00,1.50788
260.00,1.40654
270.00,1.31625
280.00,1.25898
290.00,1.21784
300.00,1.17733
310.00,1.15391
320.00,1.13275
330.00,1.11245
340.00,1.08929
350.00,1.06255
360.00,1.03597
370.00,1.01573
380.00,0.99914
390.00,0.97984
400.00,0.95555
410.00,0.92983
420.00,0.91516
430.00,0.92606
440.00,0.96309
450.00,1.01311
460.00,1.09293
470.00,1.16947
480.00,1.26014
490.00,1.34971
500.00,1.44033
510.00,1.53012
520.00,1.61716
530.00,1.71145
540.00,1.79846
550.00,1.88527
560.00,1.97303
570.00,2.05191
580.00,2.13518
590.00,2.21513
600.00,2.30056
610.00,2.37818
620.00,2.45375
630.00,2.53882
640.00,2.61162
650.00,2.68866
660.00,2.77202
670.00,2.84814
680.00,2.91858
690.00,2.99869
700.00,3.07618
710.00,3.14639
720.00,3.21804
730.00,3.28737
740.00,3.35051
750.00,3.42523
760.00,3.49341
770.00,3.57155
780.00,3.63646
790.00,3.69387
800.00,3.76286
810.00,3.83744
820.00,3.90615
830.00,3.9749
840.00,4.0315
850.00,4.07859
860.00,4.12929
870.00,4.19353
880.00,4.25453
890.00,4.25381
900.00,4.18083
