Wavelength(nm),k
206.63,3.42
208.81,3.48
211.03,3.54
213.30,3.6
215.62,3.64
217.99,3.68
220.41,3.7
222.89,3.7
225.42,3.68
228.01,3.62
230.66,3.55
233.37,3.45
236.15,3.35
239.00,3.24
241.91,3.11
244.90,2.97
247.96,2.85
251.10,2.74
254.32,2.65
257.62,2.58
261.01,2.52
264.49,2.47
268.06,2.43
271.74,2.39
275.51,2.35
279.39,2.33
283.38,2.32
287.49,2.31
291.72,2.32
296.07,2.33
300.56,2.36
305.18,2.39
309.95,2.43
314.87,2.47
319.95,2.52
325.19,2.55
330.61,2.6
336.22,2.63
342.01,2.66
348.01,2.69
354.23,2.7
360.67,2.69
367.35,2.63
374.28,2.56
381.48,2.49
388.96,2.44
396.74,2.42
404.83,2.42
413.27,2.42
422.06,2.43
431.23,2.46
440.82,2.48
450.84,2.53
461.32,2.56
472.30,2.61
483.82,2.63
495.92,2.68
508.64,2.71
522.02,2.72
536.13,2.72
551.02,2.73
566.77,2.76
583.44,2.83
601.12,2.85
619.90,2.89
639.90,2.93
661.23,2.95
684.03,2.92
708.46,2.86
734.70,2.76
762.95,2.69
793.47,2.71
826.53,2.79
862.47,2.87
901.67,3.01
944.61,3.2
991.84,3.39
1044.04,3.69
1102.04,3.94
1166.87,4.16
1239.80,4.32
